inXitu Terra XRD/XRF. PLV file format Ver. 3.0
Sample= DOLOMITE
Instrument ID= Terra.157
Date= 03/25/09
Time= 13:33:55
Start 2-theta scan= 5
End 2-theta scan= 55
Step size= 0.0555556
K-Alpha 1= 1.78897
Anode= Co
Filter= Fe
CoKaPeak= 541
splitThreshold= 3
axisX= 1129
axisY= 118
axisZ= 1252
sensorAngle1= 0.523599
sensorAngle2= 0
sensorAngle3= 0
Line   20
Line   21
Line   22
Line   23
Line   24
Line   25
Line   26
Line   27
Line   28
Line   29
Line   30
Line   31
Line   32
Line   33
Line   34
Line   35
Line   36
Line   37
Line   38
Line   39
Line   40
Line   41
Line   42
Line   43
Line   44
Line   45
Line   46
Line   47
Line   48
Line   49
Data
5 144.054
5.05556 127.066
5.11111 166.032
5.16667 141.827
5.22222 144.134
5.27778 143.33
5.33333 162.658
5.38889 152.843
5.44444 137.45
5.5 141.37
5.55556 158.394
5.61111 159.362
5.66667 154.173
5.72222 155.175
5.77778 170.259
5.83333 167.029
5.88889 170.608
5.94444 176.127
6 178.888
6.05556 170.531
6.11111 188.389
6.16667 167.521
6.22222 158.298
6.27778 196.061
6.33333 170.344
6.38889 172.915
6.44444 173.83
6.5 190.896
6.55556 161.867
6.61111 163.55
6.66667 172.828
6.72222 155.999
6.77778 174.875
6.83333 164.093
6.88889 148.558
6.94444 160.466
7 150.582
7.05556 158.773
7.11111 155.511
7.16667 139.901
7.22222 132.732
7.27778 145.81
7.33333 140.656
7.38889 146.338
7.44444 151.762
7.5 141.92
7.55556 145.683
7.61111 139.269
7.66667 145.183
7.72222 151.061
7.77778 145.884
7.83333 154.955
7.88889 137.473
7.94444 147.215
8 140.706
8.05556 152.888
8.11111 147.177
8.16667 150.959
8.22222 146.883
8.27778 150.231
8.33333 145.982
8.38889 161.694
8.44444 148.483
8.5 143.658
8.55556 141.808
8.61111 160.544
8.66667 144.925
8.72222 153.027
8.77778 139.624
8.83333 144.022
8.88889 150.352
8.94444 152.54
9 151.562
9.05556 166.374
9.11111 146.835
9.16667 153.807
9.22222 160.064
9.27778 150.288
9.33333 148.478
9.38889 168.142
9.44444 146.938
9.5 154.503
9.55556 163.092
9.61111 168.088
9.66667 166.611
9.72222 143.389
9.77778 176.741
9.83333 165.218
9.88889 166.483
9.94444 144.825
10 164.314
10.0556 142.684
10.1111 159.758
10.1667 148.175
10.2222 174.668
10.2778 158.915
10.3333 160.454
10.3889 176.693
10.4444 165.603
10.5 150.341
10.5556 151.879
10.6111 162.751
10.6667 188.549
10.7222 167.475
10.7778 172.887
10.8333 159.999
10.8889 170.209
10.9444 166.471
11 161.407
11.0556 162.962
11.1111 180.022
11.1667 165.03
11.2222 158.248
11.2778 168.646
11.3333 164.932
11.3889 166.233
11.4444 178.426
11.5 190.76
11.5556 170.102
11.6111 161.513
11.6667 174.734
11.7222 171.616
11.7778 195.442
11.8333 179.733
11.8889 178.773
11.9444 177.776
12 168.183
12.0556 163.225
12.1111 169.326
12.1667 187.447
12.2222 188.883
12.2778 163.047
12.3333 169.967
12.3889 163.493
12.4444 182.496
12.5 175.939
12.5556 191.523
12.6111 173.009
12.6667 181.991
12.7222 189.627
12.7778 189.177
12.8333 191.881
12.8889 167.859
12.9444 173.439
13 178.706
13.0556 189.166
13.1111 185.535
13.1667 185.357
13.2222 192.797
13.2778 173.592
13.3333 172.134
13.3889 179.531
13.4444 173.868
13.5 188.215
13.5556 216.432
13.6111 166.674
13.6667 181.877
13.7222 206.409
13.7778 201.437
13.8333 191.283
13.8889 181.475
13.9444 190.592
14 189.318
14.0556 188.974
14.1111 184.118
14.1667 193.37
14.2222 191.1
14.2778 204.093
14.3333 191.544
14.3889 195.884
14.4444 219.836
14.5 202.833
14.5556 189.096
14.6111 199.81
14.6667 202.341
14.7222 201.328
14.7778 190.673
14.8333 189.063
14.8889 201.924
14.9444 192.208
15 191.776
15.0556 182.713
15.1111 200.721
15.1667 193.566
15.2222 191.616
15.2778 203.849
15.3333 214.648
15.3889 209.193
15.4444 196.64
15.5 179.346
15.5556 213.087
15.6111 196.908
15.6667 209.586
15.7222 215.05
15.7778 193.829
15.8333 188.501
15.8889 221.431
15.9444 215.994
16 216.355
16.0556 226.307
16.1111 214.754
16.1667 201.779
16.2222 206.886
16.2778 201.926
16.3333 209.263
16.3889 199.689
16.4444 195.659
16.5 214.708
16.5556 214.857
16.6111 196.407
16.6667 192.255
16.7222 199.483
16.7778 212.406
16.8333 217.378
16.8889 192.183
16.9444 209.762
17 215.514
17.0556 233.756
17.1111 203.184
17.1667 203.695
17.2222 204.417
17.2778 194.442
17.3333 220.833
17.3889 212.126
17.4444 204.31
17.5 215.555
17.5556 214.17
17.6111 217.38
17.6667 196.25
17.7222 210.307
17.7778 193.523
17.8333 213.201
17.8889 199.174
17.9444 240.053
18 208.709
18.0556 209.64
18.1111 224.598
18.1667 207.61
18.2222 232.409
18.2778 204.951
18.3333 211.175
18.3889 220.273
18.4444 201.526
18.5 218.396
18.5556 201.805
18.6111 200.266
18.6667 208.451
18.7222 208.41
18.7778 235.197
18.8333 219.343
18.8889 216.719
18.9444 199.877
19 196.83
19.0556 194.913
19.1111 208.248
19.1667 208.391
19.2222 215.145
19.2778 209.828
19.3333 205.598
19.3889 221.86
19.4444 222.766
19.5 209.309
19.5556 192.441
19.6111 202.555
19.6667 224.456
19.7222 204.963
19.7778 196.566
19.8333 212.599
19.8889 221.462
19.9444 195.496
20 204.116
20.0556 199.023
20.1111 210.597
20.1667 210.755
20.2222 209.556
20.2778 210.655
20.3333 203.419
20.3889 195.931
20.4444 206.865
20.5 219.66
20.5556 209.849
20.6111 229.691
20.6667 219.78
20.7222 210.024
20.7778 192.641
20.8333 214.872
20.8889 211.362
20.9444 233.032
21 203.133
21.0556 206.517
21.1111 213.495
21.1667 199.111
21.2222 199.43
21.2778 224.345
21.3333 204.396
21.3889 195.929
21.4444 218.382
21.5 227.119
21.5556 205.463
21.6111 224.268
21.6667 208.945
21.7222 204.885
21.7778 193.072
21.8333 214.758
21.8889 211.957
21.9444 203.488
22 197.164
22.0556 205.041
22.1111 199.166
22.1667 199.314
22.2222 228.726
22.2778 218.687
22.3333 211.36
22.3889 206.274
22.4444 201.139
22.5 212.319
22.5556 219.54
22.6111 214.129
22.6667 209.113
22.7222 215.343
22.7778 208.203
22.8333 197.112
22.8889 204.587
22.9444 208.583
23 202.183
23.0556 189.945
23.1111 206.289
23.1667 187.819
23.2222 207.963
23.2778 188.192
23.3333 215.796
23.3889 183.972
23.4444 210.314
23.5 200.521
23.5556 204.85
23.6111 216.781
23.6667 185.246
23.7222 214.302
23.7778 184.82
23.8333 202.441
23.8889 209.535
23.9444 207.366
24 188.701
24.0556 189.922
24.1111 206.028
24.1667 215.861
24.2222 181.64
24.2778 184.111
24.3333 205.165
24.3889 207.038
24.4444 210.531
24.5 203.045
24.5556 216.198
24.6111 203.648
24.6667 184.391
24.7222 187.458
24.7778 206.516
24.8333 204.592
24.8889 191.981
24.9444 204.936
25 205.762
25.0556 199.603
25.1111 177.684
25.1667 181.711
25.2222 203.786
25.2778 203.504
25.3333 190.321
25.3889 202.655
25.4444 249.768
25.5 251.525
25.5556 248.219
25.6111 261.08
25.6667 269.685
25.7222 235.957
25.7778 234.425
25.8333 193.465
25.8889 199.467
25.9444 197.498
26 197.52
26.0556 198.515
26.1111 183.619
26.1667 210.055
26.2222 185.779
26.2778 164.915
26.3333 182.649
26.3889 194.688
26.4444 181.118
26.5 173.192
26.5556 193.971
26.6111 183.849
26.6667 185.737
26.7222 190.148
26.7778 192.308
26.8333 201.036
26.8889 203.989
26.9444 195.664
27 174.789
27.0556 171.252
27.1111 178.399
27.1667 169.018
27.2222 182.504
27.2778 185.075
27.3333 184.575
27.3889 179.653
27.4444 166.602
27.5 180.052
27.5556 182.938
27.6111 209.419
27.6667 193.795
27.7222 194.438
27.7778 238.694
27.8333 278.35
27.8889 299.768
27.9444 316.505
28 325.273
28.0556 325.717
28.1111 285.802
28.1667 247.21
28.2222 233.751
28.2778 182.524
28.3333 173.477
28.3889 169.11
28.4444 180.201
28.5 174.359
28.5556 181.611
28.6111 179.607
28.6667 172.968
28.7222 179.43
28.7778 188.605
28.8333 181.643
28.8889 164.133
28.9444 182.085
29 175.126
29.0556 187.713
29.1111 179.288
29.1667 181.427
29.2222 180.188
29.2778 174.207
29.3333 185.967
29.3889 169.545
29.4444 166.084
29.5 171.102
29.5556 165.923
29.6111 158.479
29.6667 167.402
29.7222 172.535
29.7778 174.125
29.8333 174.772
29.8889 181.259
29.9444 173.281
30 165.799
30.0556 162.238
30.1111 181.798
30.1667 165.363
30.2222 165.816
30.2778 161.139
30.3333 179.282
30.3889 162.438
30.4444 172.429
30.5 179.031
30.5556 167.143
30.6111 166.732
30.6667 180.42
30.7222 168.48
30.7778 168.883
30.8333 170.258
30.8889 170.188
30.9444 177.272
31 167.116
31.0556 167.216
31.1111 166.086
31.1667 160.92
31.2222 179.307
31.2778 162.082
31.3333 168.638
31.3889 173.201
31.4444 167.434
31.5 162.043
31.5556 166.368
31.6111 166.218
31.6667 173.098
31.7222 150.271
31.7778 166.191
31.8333 159.212
31.8889 181.716
31.9444 167.282
32 153.897
32.0556 177.774
32.1111 171.185
32.1667 179.692
32.2222 160.152
32.2778 181.392
32.3333 165.373
32.3889 180.245
32.4444 193.687
32.5 170.234
32.5556 187.264
32.6111 194.775
32.6667 192.352
32.7222 170.667
32.7778 163.275
32.8333 161.696
32.8889 160.429
32.9444 160.429
33 172.507
33.0556 176.611
33.1111 158.037
33.1667 167.145
33.2222 167.784
33.2778 169.218
33.3333 162.285
33.3889 163.45
33.4444 153.581
33.5 161.122
33.5556 157.737
33.6111 168.402
33.6667 164.534
33.7222 161.392
33.7778 168.894
33.8333 169.931
33.8889 162.375
33.9444 158.379
34 156.296
34.0556 177.462
34.1111 175.46
34.1667 148.956
34.2222 166.832
34.2778 170.744
34.3333 175.04
34.3889 145.641
34.4444 153.892
34.5 161.52
34.5556 170.585
34.6111 173.632
34.6667 162.29
34.7222 150.5
34.7778 166.647
34.8333 149.282
34.8889 167.669
34.9444 170.367
35 152.945
35.0556 173.994
35.1111 191.906
35.1667 204.011
35.2222 189.096
35.2778 194.811
35.3333 190.714
35.3889 211.267
35.4444 210.829
35.5 205.167
35.5556 208.904
35.6111 230.504
35.6667 283.503
35.7222 368.435
35.7778 530.789
35.8333 907.198
35.8889 1444.35
35.9444 2012.85
36 2625.5
36.0556 2931.35
36.1111 2899.91
36.1667 2398.66
36.2222 1811.76
36.2778 1197.86
36.3333 785.635
36.3889 492.133
36.4444 349.338
36.5 249.8
36.5556 223.833
36.6111 220.542
36.6667 187.727
36.7222 181.223
36.7778 210.176
36.8333 198.171
36.8889 167.268
36.9444 166.411
37 182.246
37.0556 178.766
37.1111 170.327
37.1667 161.133
37.2222 184.72
37.2778 158.457
37.3333 167.44
37.3889 169.862
37.4444 145.507
37.5 172.458
37.5556 149.211
37.6111 153.203
37.6667 163.385
37.7222 167.953
37.7778 139.339
37.8333 140.937
37.8889 161.713
37.9444 169.932
38 164.779
38.0556 167.78
38.1111 173.632
38.1667 164.903
38.2222 163.225
38.2778 163.938
38.3333 145.299
38.3889 147.014
38.4444 170.167
38.5 169.525
38.5556 169.177
38.6111 161.44
38.6667 174.542
38.7222 153.432
38.7778 150.944
38.8333 169.658
38.8889 207.896
38.9444 199.343
39 223.946
39.0556 242.184
39.1111 254.07
39.1667 261.937
39.2222 225.575
39.2778 213.761
39.3333 197.937
39.3889 182.216
39.4444 165.061
39.5 165.987
39.5556 178.19
39.6111 147.879
39.6667 157.149
39.7222 151.321
39.7778 147.793
39.8333 156.126
39.8889 142.973
39.9444 157.699
40 166.344
40.0556 136.654
40.1111 167.441
40.1667 154.559
40.2222 140.161
40.2778 155.341
40.3333 160.04
40.3889 160.778
40.4444 166.085
40.5 149.58
40.5556 153.586
40.6111 150.096
40.6667 149.814
40.7222 164.381
40.7778 149.061
40.8333 160.688
40.8889 173.043
40.9444 173.65
41 172.333
41.0556 195.388
41.1111 237.455
41.1667 247.153
41.2222 270.913
41.2778 271.966
41.3333 233.297
41.3889 219.34
41.4444 186.076
41.5 175.021
41.5556 166.88
41.6111 166.945
41.6667 163.675
41.7222 155.13
41.7778 160.233
41.8333 144.855
41.8889 160.014
41.9444 153.562
42 147.148
42.0556 147.568
42.1111 156.143
42.1667 151.347
42.2222 133.199
42.2778 149.22
42.3333 146.403
42.3889 147.048
42.4444 144.2
42.5 156.101
42.5556 147.56
42.6111 140.249
42.6667 170.649
42.7222 159.505
42.7778 151.552
42.8333 146.153
42.8889 167.653
42.9444 153.121
43 131.913
43.0556 142.095
43.1111 161.405
43.1667 165.972
43.2222 167.343
43.2778 176.002
43.3333 183.21
43.3889 189.69
43.4444 255.574
43.5 304.917
43.5556 352.61
43.6111 400.275
43.6667 438.648
43.7222 410.18
43.7778 329.906
43.8333 258.804
43.8889 215.81
43.9444 203.481
44 162.633
44.0556 138.847
44.1111 135.09
44.1667 152.947
44.2222 153.045
44.2778 155.257
44.3333 157.278
44.3889 157.115
44.4444 155.511
44.5 144.526
44.5556 159.853
44.6111 139.387
44.6667 138.954
44.7222 148.575
44.7778 143.727
44.8333 148.025
44.8889 148.933
44.9444 162.039
45 141.956
45.0556 151.259
45.1111 153.229
45.1667 148.902
45.2222 139.819
45.2778 132.217
45.3333 146.368
45.3889 149.583
45.4444 166.308
45.5 148.29
45.5556 151.283
45.6111 142.935
45.6667 135.903
45.7222 146.511
45.7778 135.795
45.8333 134.731
45.8889 124.161
45.9444 154.541
46 157.922
46.0556 142.52
46.1111 126.4
46.1667 146.468
46.2222 150.717
46.2778 128.373
46.3333 146.733
46.3889 131.477
46.4444 129.021
46.5 125.015
46.5556 151.826
46.6111 140.674
46.6667 150.328
46.7222 145.945
46.7778 134.801
46.8333 161.064
46.8889 153.071
46.9444 147.558
47 151.957
47.0556 130.257
47.1111 141.263
47.1667 151.235
47.2222 174.378
47.2778 167.509
47.3333 144.866
47.3889 162.657
47.4444 152.095
47.5 146.695
47.5556 127.739
47.6111 162.105
47.6667 159.012
47.7222 172.838
47.7778 198.956
47.8333 269.434
47.8889 383.929
47.9444 591.419
48 750.308
48.0556 903.697
48.1111 937.308
48.1667 905.783
48.2222 693.349
48.2778 524.157
48.3333 395.469
48.3889 278.687
48.4444 220.268
48.5 161.12
48.5556 176.85
48.6111 180.884
48.6667 152.656
48.7222 165.812
48.7778 148.274
48.8333 154.5
48.8889 156.832
48.9444 175.481
49 156.745
49.0556 167.985
49.1111 128.474
49.1667 150.926
49.2222 156.992
49.2778 152.38
49.3333 161.106
49.3889 149.383
49.4444 145.322
49.5 138.988
49.5556 143.52
49.6111 152.216
49.6667 153.99
49.7222 139.165
49.7778 138.519
49.8333 149.772
49.8889 146.897
49.9444 139.846
50 151.663
50.0556 168.117
50.1111 126.988
50.1667 134.861
50.2222 153.185
50.2778 137.777
50.3333 127.772
50.3889 139.888
50.4444 143.964
50.5 143.86
50.5556 153.543
50.6111 165.812
50.6667 153.76
50.7222 135.763
50.7778 143.966
50.8333 161.247
50.8889 156.049
50.9444 163.089
51 149.411
51.0556 181.275
51.1111 235.256
51.1667 266.292
51.2222 281.904
51.2778 281.082
51.3333 272.119
51.3889 255.287
51.4444 226.68
51.5 205.408
51.5556 166.164
51.6111 175.824
51.6667 161.205
51.7222 147.355
51.7778 146.934
51.8333 131.923
51.8889 158.101
51.9444 135.26
52 138.112
52.0556 153.995
52.1111 157.511
52.1667 174.125
52.2222 153.633
52.2778 154.655
52.3333 161.435
52.3889 197.084
52.4444 292.112
52.5 380.998
52.5556 436.958
52.6111 466.339
52.6667 419.916
52.7222 401.447
52.7778 323.214
52.8333 265.038
52.8889 221.851
52.9444 192.69
53 189.377
53.0556 159.296
53.1111 143.64
53.1667 154.278
53.2222 139.798
53.2778 152.225
53.3333 153.112
53.3889 140.412
53.4444 125.938
53.5 131.736
53.5556 132.205
53.6111 148.113
53.6667 130.602
53.7222 125.973
53.7778 164.532
53.8333 150.993
53.8889 129.839
53.9444 138.725
54 157.454
54.0556 123.59
54.1111 144.086
54.1667 143.936
54.2222 139.594
54.2778 152.421
54.3333 148.435
54.3889 127.376
54.4444 132.457
54.5 154.16
54.5556 118.738
54.6111 139.306
54.6667 135.399
54.7222 139.154
54.7778 141.171
54.8333 135.626
54.8889 147.542
54.9444 128.739
