inXitu Terra XRD/XRF. PLV file format Ver. 3.0
Sample= dolomite-ST
Instrument ID= Terra.157
Date= 04/04/09
Time= 00:36:31
Start 2-theta scan= 5
End 2-theta scan= 55
Step size= 0.05
K-Alpha 1= 1.78897
Anode= Co
Filter= Fe
CoKaPeak= 539
splitThreshold= 3
axisX= 1129
axisY= 128
axisZ= 1252
sensorAngle1= 0.523599
sensorAngle2= 0
sensorAngle3= 0
Line   20
Line   21
Line   22
Line   23
Line   24
Line   25
Line   26
Line   27
Line   28
Line   29
Line   30
Line   31
Line   32
Line   33
Line   34
Line   35
Line   36
Line   37
Line   38
Line   39
Line   40
Line   41
Line   42
Line   43
Line   44
Line   45
Line   46
Line   47
Line   48
Line   49
Data
5 25.3367
5.05 28.4812
5.1 24.2922
5.15 23.9505
5.2 30.2578
5.25 26.5166
5.3 26.1437
5.35 27.2798
5.4 24.1274
5.45 23.6593
5.5 24.3823
5.55 24.6885
5.6 24.8797
5.65 29.318
5.7 24.4413
5.75 27.3421
5.8 21.3428
5.85 29.8959
5.9 26.888
5.95 32.9708
6 30.2623
6.05 29.3867
6.1 34.175
6.15 35.6683
6.2 28.2359
6.25 35.2903
6.3 36.0806
6.35 34.106
6.4 32.2029
6.45 31.5609
6.5 31.6786
6.55 28.1976
6.6 31.4299
6.65 29.7988
6.7 29.2456
6.75 27.399
6.8 28.5311
6.85 30.1486
6.9 26.469
6.95 25.6903
7 28.3992
7.05 25.6378
7.1 24.7669
7.15 23.9999
7.2 26.5727
7.25 26.3253
7.3 26.2699
7.35 24.3414
7.4 25.4972
7.45 23.9313
7.5 23.6617
7.55 23.839
7.6 24.3966
7.65 24.5222
7.7 25.0422
7.75 27.8261
7.8 25.3756
7.85 25.921
7.9 23.3793
7.95 26.4588
8 25.8513
8.05 23.8078
8.1 25.9689
8.15 25.8555
8.2 25.7402
8.25 24.6681
8.3 27.0837
8.35 24.4585
8.4 28.2332
8.45 25.4854
8.5 26.4771
8.55 23.8958
8.6 29.2533
8.65 28.9614
8.7 27.2782
8.75 23.563
8.8 26.0505
8.85 26.5038
8.9 24.9474
8.95 26.6708
9 26.0383
9.05 27.331
9.1 29.5191
9.15 26.677
9.2 29.4056
9.25 26.9402
9.3 33.4231
9.35 28.1821
9.4 27.9669
9.45 27.2536
9.5 26.7571
9.55 26.8989
9.6 32.2383
9.65 22.5398
9.7 26.3596
9.75 28.458
9.8 29.9569
9.85 29.8009
9.9 28.0089
9.95 23.765
10 25.0718
10.05 24.0296
10.1 22.1991
10.15 26.6094
10.2 29.4513
10.25 26.2577
10.3 28.8105
10.35 29.0506
10.4 30.6552
10.45 25.7253
10.5 26.4733
10.55 30.0054
10.6 25.6524
10.65 29.9661
10.7 28.1968
10.75 31.5732
10.8 30.5559
10.85 30.9411
10.9 31.8245
10.95 28.7434
11 30.2962
11.05 31.304
11.1 32.481
11.15 29.647
11.2 27.7281
11.25 30.1315
11.3 34.6104
11.35 27.1375
11.4 30.2129
11.45 30.5835
11.5 32.9018
11.55 35.9915
11.6 29.8491
11.65 31.5628
11.7 32.5432
11.75 31.9368
11.8 30.9959
11.85 28.336
11.9 35.3429
11.95 35.2518
12 30.4227
12.05 28.4347
12.1 31.8982
12.15 33.657
12.2 32.7092
12.25 34.4547
12.3 39.3409
12.35 31.8208
12.4 27.2461
12.45 29.7427
12.5 32.8287
12.55 35.5253
12.6 32.6186
12.65 31.3383
12.7 30.9259
12.75 32.9484
12.8 33.3931
12.85 33.3506
12.9 31.1623
12.95 28.6388
13 30.1383
13.05 27.5457
13.1 29.5385
13.15 34.0794
13.2 38.6397
13.25 32.0849
13.3 33.1179
13.35 30.447
13.4 31.294
13.45 28.8949
13.5 33.6165
13.55 36.8009
13.6 31.0979
13.65 35.0608
13.7 34.9964
13.75 35.6059
13.8 36.4108
13.85 35.9554
13.9 38.8677
13.95 38.2656
14 36.512
14.05 31.5279
14.1 37.0499
14.15 36.1886
14.2 32.2664
14.25 38.835
14.3 38.3454
14.35 37.2873
14.4 35.662
14.45 37.3596
14.5 34.95
14.55 30.9348
14.6 35.0503
14.65 35.0093
14.7 37.8567
14.75 41.2342
14.8 35.411
14.85 37.2609
14.9 31.805
14.95 41.2503
15 41.2862
15.05 36.9408
15.1 39.2191
15.15 35.5246
15.2 37.2623
15.25 38.7973
15.3 37.8799
15.35 30.1644
15.4 34.1148
15.45 41.3355
15.5 36.7419
15.55 39.7105
15.6 37.6228
15.65 37.9899
15.7 37.8828
15.75 39.8982
15.8 35.4349
15.85 38.59
15.9 38.5926
15.95 36.097
16 31.528
16.05 36.5274
16.1 37.3143
16.15 37.2834
16.2 42.9305
16.25 37.9894
16.3 41.3112
16.35 37.3045
16.4 46.4535
16.45 34.5608
16.5 42.2703
16.55 41.5419
16.6 41.0786
16.65 35.5808
16.7 37.1305
16.75 42.2459
16.8 34.372
16.85 42.6472
16.9 37.5094
16.95 37.8494
17 37.8061
17.05 35.2866
17.1 41.2484
17.15 42.2506
17.2 44.2263
17.25 39.7162
17.3 43.7189
17.35 41.1443
17.4 37.8584
17.45 43.165
17.5 44.1762
17.55 41.3022
17.6 39.3296
17.65 41.7217
17.7 40.7536
17.75 43.0023
17.8 35.7638
17.85 40.6528
17.9 43.753
17.95 38.5403
18 35.1001
18.05 39.082
18.1 49.792
18.15 42.8458
18.2 40.8127
18.25 41.3214
18.3 42.8819
18.35 36.0438
18.4 40.8103
18.45 43.6889
18.5 43.9119
18.55 37.9919
18.6 40.5073
18.65 41.5549
18.7 35.6922
18.75 38.5998
18.8 41.3122
18.85 39.9586
18.9 41.7334
18.95 41.3995
19 33.2611
19.05 40.9257
19.1 37.1042
19.15 43.7677
19.2 39.8104
19.25 39.3375
19.3 41.9549
19.35 43.1295
19.4 42.1833
19.45 37.1228
19.5 39.9253
19.55 45.0873
19.6 41.6485
19.65 40.3018
19.7 39.9963
19.75 42.3593
19.8 41.3818
19.85 43.637
19.9 43.9356
19.95 37.3439
20 42.406
20.05 43.5434
20.1 41.7442
20.15 45.1214
20.2 40.4668
20.25 38.8543
20.3 36.2748
20.35 37.4571
20.4 40.998
20.45 41.2794
20.5 35.9972
20.55 41.8722
20.6 39.8751
20.65 40.7547
20.7 43.0925
20.75 41.2994
20.8 39.1413
20.85 38.6329
20.9 34.9111
20.95 35.8683
21 37.3803
21.05 39.9403
21.1 35.0992
21.15 41.4839
21.2 39.475
21.25 47.2087
21.3 43.4435
21.35 39.0438
21.4 42.3385
21.45 39.0829
21.5 41.1067
21.55 36.7162
21.6 39.9032
21.65 45.8387
21.7 42.2553
21.75 40.364
21.8 42.3163
21.85 37.9608
21.9 37.5546
21.95 43.2782
22 38.6557
22.05 40.1721
22.1 39.0208
22.15 44.398
22.2 38.8771
22.25 38.4756
22.3 39.4345
22.35 44.4846
22.4 43.1687
22.45 43.2926
22.5 39.4937
22.55 39.628
22.6 39.4356
22.65 43.1385
22.7 39.1359
22.75 37.705
22.8 40.28
22.85 33.9058
22.9 42.5917
22.95 38.5155
23 38.3883
23.05 39.7642
23.1 40.5906
23.15 40.4427
23.2 37.9057
23.25 33.6671
23.3 41.3183
23.35 41.4856
23.4 43.3354
23.45 40.6455
23.5 42.9015
23.55 38.879
23.6 36.8851
23.65 39.9942
23.7 43.5322
23.75 38.2725
23.8 37.7496
23.85 38.898
23.9 39.3511
23.95 38.5299
24 38.8169
24.05 34.7989
24.1 42.778
24.15 40.1082
24.2 38.3813
24.25 37.2892
24.3 41.3597
24.35 38.2866
24.4 38.7476
24.45 38.1976
24.5 43.3128
24.55 36.1829
24.6 34.6672
24.65 39.0951
24.7 37.3126
24.75 43.4264
24.8 38.7031
24.85 36.3128
24.9 38.4673
24.95 35.5342
25 33.2059
25.05 41.4152
25.1 37.9617
25.15 31.6461
25.2 37.9287
25.25 33.3491
25.3 36.5979
25.35 37.6457
25.4 41.6329
25.45 43.4137
25.5 45.9515
25.55 51.8601
25.6 50.3409
25.65 48.8428
25.7 51.0447
25.75 45.4376
25.8 48.7939
25.85 39.1444
25.9 41.9245
25.95 42.909
26 40.703
26.05 40.5335
26.1 35.8023
26.15 35.8692
26.2 44.0132
26.25 34.2575
26.3 35.4161
26.35 37.8091
26.4 39.1358
26.45 37.8315
26.5 32.6038
26.55 35.1668
26.6 32.8198
26.65 34.1368
26.7 33.117
26.75 36.4247
26.8 36.5962
26.85 38.4754
26.9 35.6129
26.95 37.0813
27 38.3107
27.05 39.5518
27.1 32.8244
27.15 34.0532
27.2 36.5012
27.25 31.0328
27.3 33.6645
27.35 34.5199
27.4 39.3148
27.45 36.5252
27.5 40.7776
27.55 35.8227
27.6 40.5084
27.65 36.4743
27.7 43.5825
27.75 39.1004
27.8 42.4698
27.85 55.341
27.9 61.8827
27.95 62.8208
28 70.2879
28.05 62.201
28.1 58.5819
28.15 46.6745
28.2 50.9904
28.25 36.6393
28.3 38.9854
28.35 35.108
28.4 35.232
28.45 38.3637
28.5 34.5455
28.55 34.3963
28.6 35.327
28.65 35.6264
28.7 35.27
28.75 33.7895
28.8 34.8423
28.85 32.9658
28.9 36.5773
28.95 34.6926
29 39.3505
29.05 36.3519
29.1 32.8384
29.15 39.4807
29.2 36.9648
29.25 35.1938
29.3 30.4289
29.35 33.5404
29.4 31.8534
29.45 34.4403
29.5 40.5093
29.55 36.3502
29.6 32.5971
29.65 34.295
29.7 34.5093
29.75 34.0123
29.8 36.1936
29.85 29.3679
29.9 34.8559
29.95 36.3161
30 31.9923
30.05 36.0895
30.1 32.7996
30.15 36.7014
30.2 36.917
30.25 31.1962
30.3 31.1013
30.35 30.9456
30.4 35.923
30.45 34.3777
30.5 32.2899
30.55 28.2584
30.6 35.2698
30.65 34.2708
30.7 28.5062
30.75 34.9612
30.8 30.9798
30.85 31.6814
30.9 37.8219
30.95 31.2672
31 31.8337
31.05 30.0179
31.1 32.0905
31.15 34.1914
31.2 33.8204
31.25 31.9966
31.3 34.0198
31.35 35.034
31.4 32.6913
31.45 34.4292
31.5 31.132
31.55 31.901
31.6 32.598
31.65 32.3079
31.7 33.341
31.75 34.9437
31.8 31.5941
31.85 33.1155
31.9 31.5462
31.95 33.5888
32 34.1162
32.05 37.7215
32.1 35.7817
32.15 35.6494
32.2 38.8745
32.25 31.2597
32.3 39.9437
32.35 34.5883
32.4 34.6108
32.45 30.9801
32.5 34.0778
32.55 36.8859
32.6 40.7513
32.65 40.5394
32.7 36.6779
32.75 33.9435
32.8 31.6191
32.85 31.7693
32.9 31.779
32.95 35.9665
33 37.4597
33.05 28.1548
33.1 27.1002
33.15 30.8838
33.2 33.3109
33.25 33.307
33.3 31.586
33.35 30.7883
33.4 31.8905
33.45 30.2102
33.5 28.0699
33.55 31.4641
33.6 35.6773
33.65 34.0241
33.7 31.9357
33.75 33.2521
33.8 33.7035
33.85 35.8859
33.9 34.3463
33.95 32.2606
34 33.6952
34.05 31.2529
34.1 34.3222
34.15 34.6212
34.2 34.8005
34.25 31.3149
34.3 33.7788
34.35 33.5942
34.4 32.5629
34.45 38.1273
34.5 28.933
34.55 37.0525
34.6 31.9854
34.65 28.2744
34.7 29.9313
34.75 29.3182
34.8 31.8939
34.85 34.2489
34.9 34.5382
34.95 31.5166
35 31.5499
35.05 33.8986
35.1 38.4615
35.15 39.0357
35.2 37.5391
35.25 36.6165
35.3 36.3136
35.35 38.5176
35.4 34.6662
35.45 33.9118
35.5 40.0943
35.55 43.1902
35.6 43.5676
35.65 45.7877
35.7 54.2078
35.75 58.2976
35.8 91.8835
35.85 146.632
35.9 239.775
35.95 370.744
36 483.357
36.05 580.75
36.1 638.42
36.15 574.521
36.2 482.032
36.25 342.411
36.3 216.726
36.35 125.082
36.4 74.2307
36.45 48.4837
36.5 43.7617
36.55 45.1801
36.6 39.1003
36.65 39.5019
36.7 40.9316
36.75 38.9313
36.8 33.7116
36.85 38.3694
36.9 38.078
36.95 36.8812
37 29.0514
37.05 33.1208
37.1 32.6893
37.15 36.6825
37.2 28.6738
37.25 32.4281
37.3 30.6165
37.35 29.8024
37.4 33.3465
37.45 38.3598
37.5 33.5871
37.55 30.1376
37.6 31.0468
37.65 30.8934
37.7 32.3133
37.75 37.3928
37.8 36.5697
37.85 27.0755
37.9 35.1885
37.95 29.4042
38 28.4685
38.05 28.2764
38.1 28.6072
38.15 32.9754
38.2 33.5385
38.25 29.9464
38.3 31.3298
38.35 31.8963
38.4 32.0068
38.45 33.5965
38.5 28.4011
38.55 31.9833
38.6 29.1785
38.65 27.9621
38.7 31.135
38.75 29.7632
38.8 39.1576
38.85 33.3484
38.9 39.1546
38.95 42.1415
39 48.9064
39.05 56.7662
39.1 50.8193
39.15 58.9553
39.2 58.397
39.25 52.0188
39.3 52.1929
39.35 39.4006
39.4 39.9195
39.45 34.2153
39.5 29.2942
39.55 30.6981
39.6 29.3418
39.65 34.1592
39.7 29.3549
39.75 27.34
39.8 32.1263
39.85 30.9108
39.9 33.0482
39.95 31.4052
40 26.7864
40.05 31.1023
40.1 29.6649
40.15 33.4509
40.2 30.6909
40.25 30.843
40.3 33.7024
40.35 28.5512
40.4 22.682
40.45 33.3103
40.5 30.6602
40.55 29.5709
40.6 31.2014
40.65 32.091
40.7 26.078
40.75 29.3514
40.8 29.5051
40.85 31.1086
40.9 27.9155
40.95 30.3286
41 37.4132
41.05 37.9869
41.1 44.641
41.15 50.625
41.2 58.226
41.25 58.337
41.3 56.3872
41.35 50.9951
41.4 41.7768
41.45 37.7995
41.5 32.1834
41.55 26.7766
41.6 30.8242
41.65 25.2758
41.7 28.9141
41.75 31.191
41.8 29.3291
41.85 30.4702
41.9 33.3947
41.95 25.6976
42 25.5356
42.05 25.1208
42.1 30.6702
42.15 29.6668
42.2 30.0703
42.25 27.9976
42.3 27.8534
42.35 29.717
42.4 26.9544
42.45 29.5289
42.5 31.8921
42.55 29.149
42.6 30.4146
42.65 31.5172
42.7 28.7247
42.75 27.277
42.8 31.7097
42.85 26.6214
42.9 27.9824
42.95 28.8449
43 30.8283
43.05 27.1533
43.1 28.4279
43.15 27.9948
43.2 25.5589
43.25 32.9945
43.3 32.9321
43.35 33.2254
43.4 36.1803
43.45 39.8685
43.5 48.3378
43.55 57.8654
43.6 66.3917
43.65 71.2637
43.7 78.7002
43.75 70.5894
43.8 68.2129
43.85 49.7558
43.9 39.9414
43.95 31.4793
44 28.969
44.05 28.8525
44.1 22.9597
44.15 24.4563
44.2 30.472
44.25 25.5002
44.3 24.2492
44.35 34.2872
44.4 28.6999
44.45 23.4129
44.5 26.4662
44.55 26.7921
44.6 28.2391
44.65 28.9652
44.7 24.9476
44.75 22.5495
44.8 29.0929
44.85 23.6847
44.9 27.5881
44.95 30.2572
45 25.1338
45.05 24.6386
45.1 23.8004
45.15 30.1939
45.2 28.1338
45.25 23.9805
45.3 23.3104
45.35 26.5849
45.4 22.7975
45.45 23.0621
45.5 23.14
45.55 27.0054
45.6 26.4819
45.65 24.8474
45.7 24.8798
45.75 27.5761
45.8 22.3432
45.85 23.46
45.9 22.0922
45.95 27.7359
46 27.8614
46.05 21.05
46.1 24.7838
46.15 26.6163
46.2 34.5806
46.25 23.3211
46.3 27.7185
46.35 21.8796
46.4 23.9529
46.45 22.558
46.5 24.5571
46.55 23.1174
46.6 24.0733
46.65 27.2363
46.7 26.7283
46.75 29.7174
46.8 26.9162
46.85 29.0946
46.9 23.2977
46.95 26.9829
47 26.9798
47.05 29.5511
47.1 25.7839
47.15 24.2678
47.2 22.6701
47.25 28.1921
47.3 23.7149
47.35 25.8439
47.4 24.4846
47.45 25.3177
47.5 29.2683
47.55 28.8696
47.6 30.9835
47.65 26.862
47.7 24.7271
47.75 24.5124
47.8 42.2785
47.85 42.1336
47.9 64.03
47.95 85.8534
48 113.508
48.05 167.323
48.1 174.049
48.15 180.976
48.2 157.736
48.25 121.794
48.3 99.7587
48.35 63.1912
48.4 48.0768
48.45 38.3315
48.5 32.0236
48.55 24.4613
48.6 26.9931
48.65 25.1774
48.7 21.7317
48.75 23.4746
48.8 23.5666
48.85 23.246
48.9 23.8058
48.95 21.9573
49 19.3495
49.05 21.7196
49.1 24.8636
49.15 21.373
49.2 21.2313
49.25 20.6509
49.3 22.9624
49.35 21.3853
49.4 22.0754
49.45 20.3545
49.5 24.1573
49.55 22.3269
49.6 23.5302
49.65 19.5052
49.7 18.5527
49.75 22.1971
49.8 24.6267
49.85 25.975
49.9 23.8709
49.95 19.4841
50 19.9852
50.05 25.3658
50.1 22.9179
50.15 19.6943
50.2 21.3334
50.25 24.2688
50.3 25.5623
50.35 23.5685
50.4 26.197
50.45 24.4955
50.5 19.6178
50.55 22.8352
50.6 19.8346
50.65 23.5902
50.7 22.1591
50.75 20.2755
50.8 23.3087
50.85 20.6665
50.9 20.9739
50.95 25.0811
51 22.2616
51.05 23.4506
51.1 27.9884
51.15 39.3839
51.2 44.3391
51.25 50.6193
51.3 56.4932
51.35 47.3117
51.4 39.6538
51.45 34.334
51.5 32.3422
51.55 30.8777
51.6 24.4842
51.65 25.1669
51.7 18.4459
51.75 23.7432
51.8 24.6155
51.85 24.1015
51.9 18.6524
51.95 24.3983
52 15.4404
52.05 24.7232
52.1 16.1907
52.15 19.1445
52.2 20.955
52.25 31.2752
52.3 23.7099
52.35 25.6047
52.4 26.4506
52.45 42.2666
52.5 54.5759
52.55 66.5257
52.6 68.6733
52.65 74.6281
52.7 80.0545
52.75 65.4747
52.8 54.0723
52.85 51.0165
52.9 36.687
52.95 26.9647
53 26.7931
53.05 27.2471
53.1 22.6042
53.15 19.0475
53.2 16.985
53.25 24.2445
53.3 19.6934
53.35 17.9652
53.4 21.686
53.45 20.0292
53.5 18.6983
53.55 28.1489
53.6 20.4829
53.65 21.0118
53.7 18.8692
53.75 20.5733
53.8 20.5459
53.85 13.7184
53.9 15.9436
53.95 19.011
54 15.7687
54.05 19.2579
54.1 11.3269
54.15 16.2665
54.2 20.0074
54.25 16.1744
54.3 20.4469
54.35 18.1662
54.4 16.5362
54.45 19.3164
54.5 20.2712
54.55 21.4511
54.6 17.4466
54.65 18.5491
54.7 24.0997
54.75 17.4765
54.8 19.2557
54.85 20.0174
54.9 20.8133
54.95 17.2236
