inXitu Terra XRD/XRF. PLV file format Ver. 3.0
Sample= GypsumP
Instrument ID= Terra.
Date= 06/11/13
Time= 14:27:23
Start 2-theta scan= 3
End 2-theta scan= 50.5
Step size= 0.05
K-Alpha 1= 1.78897
Anode= Co
Filter= None
CoKaPeak= 470
splitThreshold= 30
axisX= 1065.06
axisY= 128
axisZ= 1293.03
sensorAngle1= 0.518144
sensorAngle2= 0
sensorAngle3= 0
integrationTime= 2500
Line   21
Line   22
Line   23
Line   24
Line   25
Line   26
Line   27
Line   28
Line   29
Line   30
Line   31
Line   32
Line   33
Line   34
Line   35
Line   36
Line   37
Line   38
Line   39
Line   40
Line   41
Line   42
Line   43
Line   44
Line   45
Line   46
Line   47
Line   48
Line   49
Data
3 225.878
3.05 244.028
3.1 268.289
3.15 247.14
3.2 274.539
3.25 228.649
3.3 199.182
3.35 234.546
3.4 238.909
3.45 234.263
3.5 218.467
3.55 220.533
3.6 209.886
3.65 255.177
3.7 203.061
3.75 206.721
3.8 237.341
3.85 205.537
3.9 207.887
3.95 208.289
4 219.133
4.05 190.029
4.1 203.605
4.15 232.088
4.2 213.993
4.25 189.224
4.3 211.215
4.35 214.819
4.4 213.05
4.45 218.714
4.5 183.095
4.55 254.604
4.6 216.316
4.65 209.669
4.7 214.109
4.75 222.763
4.8 225.433
4.85 195.881
4.9 207.391
4.95 203.04
5 202.449
5.05 211.292
5.1 222.916
5.15 206.374
5.2 204.56
5.25 234.317
5.3 218.312
5.35 204.419
5.4 215.233
5.45 203.17
5.5 201.062
5.55 219.476
5.6 214.377
5.65 235.257
5.7 235.124
5.75 226.611
5.8 217.331
5.85 246.564
5.9 241.895
5.95 232.326
6 247.24
6.05 254.794
6.1 263.192
6.15 268.86
6.2 253.568
6.25 262.448
6.3 289.384
6.35 286.975
6.4 304.69
6.45 297.835
6.5 284.377
6.55 297.781
6.6 276.438
6.65 275.799
6.7 276.204
6.75 287.899
6.8 286.916
6.85 257.294
6.9 237.056
6.95 250.358
7 228.34
7.05 241.444
7.1 249.858
7.15 272.634
7.2 235.481
7.25 240.393
7.3 234.97
7.35 253.415
7.4 249.96
7.45 215.565
7.5 232.627
7.55 232.789
7.6 236.389
7.65 216.078
7.7 225.146
7.75 251.384
7.8 216.396
7.85 231.114
7.9 222.431
7.95 245.415
8 213.221
8.05 228.216
8.1 220.109
8.15 245.046
8.2 231.349
8.25 212.246
8.3 236.284
8.35 239.63
8.4 221.693
8.45 201.476
8.5 218.773
8.55 225.903
8.6 209.103
8.65 224.512
8.7 205.818
8.75 236.265
8.8 230.318
8.85 216.66
8.9 209.325
8.95 207.877
9 227.303
9.05 238.593
9.1 214.577
9.15 216.202
9.2 214.254
9.25 233.616
9.3 248.823
9.35 238.73
9.4 214.8
9.45 229.375
9.5 220.774
9.55 205.656
9.6 220.465
9.65 228.297
9.7 220.77
9.75 198.208
9.8 235.072
9.85 249.802
9.9 241.575
9.95 235.115
10 209.849
10.05 205.784
10.1 209.806
10.15 231.552
10.2 238.131
10.25 215.907
10.3 238.899
10.35 251.724
10.4 227.735
10.45 230.832
10.5 251.718
10.55 233.612
10.6 254.564
10.65 236.082
10.7 237.196
10.75 231.319
10.8 231.944
10.85 238.15
10.9 225.101
10.95 219.032
11 221.99
11.05 218.634
11.1 279.971
11.15 227.95
11.2 230.283
11.25 225.883
11.3 234.215
11.35 248.373
11.4 251.28
11.45 224.658
11.5 226.642
11.55 241.718
11.6 260.87
11.65 260.357
11.7 233.392
11.75 224.336
11.8 247.962
11.85 234.853
11.9 244.942
11.95 248.863
12 281.699
12.05 251.82
12.1 279.262
12.15 277.513
12.2 302.383
12.25 266.701
12.3 246.4
12.35 237.812
12.4 287.369
12.45 276.56
12.5 256.336
12.55 252.113
12.6 293.608
12.65 291.819
12.7 287.229
12.75 278.2
12.8 267.17
12.85 260.201
12.9 261.186
12.95 292.491
13 302.944
13.05 298.579
13.1 344.948
13.15 438.894
13.2 712.917
13.25 1138.85
13.3 1741.64
13.35 2502.05
13.4 3197.69
13.45 3465.51
13.5 3462.95
13.55 2957.57
13.6 2098.29
13.65 1299.52
13.7 790.4
13.75 537.636
13.8 381.002
13.85 314.53
13.9 295.033
13.95 295.706
14 283.595
14.05 271.463
14.1 273.326
14.15 270.831
14.2 268.645
14.25 276.821
14.3 289.113
14.35 247.446
14.4 268.093
14.45 264.56
14.5 267.401
14.55 273.707
14.6 292.139
14.65 276.542
14.7 255.722
14.75 267.019
14.8 256.006
14.85 245.827
14.9 249.612
14.95 253.158
15 256.93
15.05 250.374
15.1 271.599
15.15 249.573
15.2 236.426
15.25 261.104
15.3 237.886
15.35 242.342
15.4 269.021
15.45 262.611
15.5 252.684
15.55 239.371
15.6 258.554
15.65 247.365
15.7 256.516
15.75 244.47
15.8 234.231
15.85 246.96
15.9 242.595
15.95 277.581
16 269.624
16.05 262.415
16.1 257.733
16.15 268.122
16.2 279.305
16.25 276.766
16.3 241.953
16.35 253.821
16.4 266.183
16.45 247.882
16.5 247.863
16.55 261.131
16.6 249.858
16.65 237.735
16.7 251.072
16.75 257.93
16.8 241.53
16.85 249.093
16.9 245.079
16.95 253.095
17 256.298
17.05 240.936
17.1 239.444
17.15 232.415
17.2 260.158
17.25 239.571
17.3 255.187
17.35 258.035
17.4 243.806
17.45 239.891
17.5 239.623
17.55 247.261
17.6 254.698
17.65 221.337
17.7 231.705
17.75 232.667
17.8 233.782
17.85 229.769
17.9 237.509
17.95 239.132
18 243.833
18.05 237.728
18.1 245.975
18.15 227.565
18.2 254.434
18.25 211.266
18.3 235.109
18.35 244.656
18.4 227.532
18.45 231.039
18.5 232.992
18.55 234.523
18.6 258.199
18.65 241.182
18.7 239.936
18.75 221.642
18.8 240.855
18.85 251.835
18.9 251.618
18.95 220.14
19 225.745
19.05 222.154
19.1 234.023
19.15 241.531
19.2 252.464
19.25 241.022
19.3 232.345
19.35 198.875
19.4 237.108
19.45 240.407
19.5 244.931
19.55 233.768
19.6 256.922
19.65 234.608
19.7 249.453
19.75 244.282
19.8 239.393
19.85 228.15
19.9 217.549
19.95 225.702
20 243.654
20.05 237.123
20.1 216.19
20.15 234.433
20.2 245.338
20.25 216.052
20.3 229.208
20.35 233.3
20.4 240.448
20.45 236.872
20.5 234.383
20.55 225.702
20.6 225.404
20.65 227.425
20.7 231.215
20.75 223.941
20.8 237.494
20.85 246.602
20.9 236.16
20.95 238.323
21 230.319
21.05 211.413
21.1 223.083
21.15 224.746
21.2 229.692
21.25 234.243
21.3 210.315
21.35 217.356
21.4 224.568
21.45 235.007
21.5 226.256
21.55 228.369
21.6 255.944
21.65 276.445
21.7 277.305
21.75 258.197
21.8 245.476
21.85 252.785
21.9 236.683
21.95 238.16
22 227.264
22.05 210.194
22.1 233.705
22.15 226.079
22.2 213.752
22.25 201.271
22.3 214.685
22.35 243.506
22.4 228.982
22.45 198.292
22.5 231.421
22.55 230.05
22.6 228.6
22.65 231.25
22.7 231.244
22.75 228.125
22.8 216.884
22.85 217.11
22.9 212.652
22.95 232.219
23 236.63
23.05 231.633
23.1 213.755
23.15 225.749
23.2 223.525
23.25 225.675
23.3 231.004
23.35 235.466
23.4 233.934
23.45 228.622
23.5 266.635
23.55 236.394
23.6 224.724
23.65 287.997
23.7 280.395
23.75 361.08
23.8 440.105
23.85 703.354
23.9 1057.99
23.95 1574.55
24 2201.65
24.05 2452.02
24.1 2595.89
24.15 2227.39
24.2 1626.73
24.25 1084.5
24.3 686.209
24.35 451.776
24.4 316.481
24.45 278.965
24.5 271.028
24.55 251.61
24.6 237.181
24.65 228.756
24.7 233.836
24.75 237.093
24.8 240.457
24.85 254.751
24.9 238.241
24.95 231.426
25 224.934
25.05 235.434
25.1 226.833
25.15 235.299
25.2 203.634
25.25 234.424
25.3 222.781
25.35 230.375
25.4 215.837
25.45 220.974
25.5 232.345
25.55 219.309
25.6 215.222
25.65 203.447
25.7 216.181
25.75 212.99
25.8 226.118
25.85 202.39
25.9 212.392
25.95 229.691
26 217.444
26.05 199
26.1 205.503
26.15 205.963
26.2 229.021
26.25 223.585
26.3 208.665
26.35 224.334
26.4 228.235
26.45 233.584
26.5 187.416
26.55 218.555
26.6 211.526
26.65 190.329
26.7 218.54
26.75 211.23
26.8 227.448
26.85 228.858
26.9 246.38
26.95 260.603
27 359.086
27.05 485.957
27.1 610.662
27.15 715.213
27.2 746.286
27.25 730.278
27.3 586.56
27.35 415.89
27.4 299.151
27.45 266.057
27.5 226.055
27.55 208.689
27.6 196.559
27.65 203.646
27.7 198.677
27.75 217.655
27.8 198.19
27.85 183.805
27.9 203.143
27.95 198.176
28 192.416
28.05 213.193
28.1 193.873
28.15 194.257
28.2 178.114
28.25 199.645
28.3 198.957
28.35 195.049
28.4 189.283
28.45 197.234
28.5 189.245
28.55 214.763
28.6 193.85
28.65 177.077
28.7 192.995
28.75 189.957
28.8 202.116
28.85 179.692
28.9 183.011
28.95 194.721
29 191.834
29.05 195.628
29.1 178.356
29.15 208.28
29.2 211.735
29.25 189.994
29.3 173.595
29.35 182.425
29.4 187.917
29.45 198.55
29.5 215.783
29.55 196.976
29.6 189.6
29.65 198.954
29.7 192.535
29.75 201.596
29.8 200.945
29.85 182.462
29.9 192.667
29.95 211.419
30 192.89
30.05 192.59
30.1 205.72
30.15 201.307
30.2 201.508
30.25 208.438
30.3 215.356
30.35 220.31
30.4 199.455
30.45 214.761
30.5 223.227
30.55 213.816
30.6 222.112
30.65 219.133
30.7 204.254
30.75 214.187
30.8 195.749
30.85 213.803
30.9 206.65
30.95 206.78
31 188.802
31.05 217.198
31.1 195.126
31.15 205.099
31.2 186.522
31.25 198.342
31.3 186.716
31.35 187.139
31.4 194.549
31.45 175.236
31.5 167.668
31.55 201.648
31.6 192.286
31.65 193.227
31.7 180.084
31.75 189.578
31.8 182.023
31.85 189.312
31.9 185.128
31.95 176.575
32 180.172
32.05 174.981
32.1 162.609
32.15 156.081
32.2 196.403
32.25 173.733
32.3 169.966
32.35 208.073
32.4 189.177
32.45 185.475
32.5 214.809
32.55 228.307
32.6 266.861
32.65 272.663
32.7 310.03
32.75 295.204
32.8 278.591
32.85 265.151
32.9 237.501
32.95 192.183
33 196.338
33.05 215.453
33.1 186.684
33.15 187.507
33.2 196.837
33.25 200.842
33.3 184.264
33.35 191.653
33.4 189.329
33.45 228.143
33.5 212.426
33.55 249.705
33.6 314.261
33.65 436.507
33.7 704.898
33.75 1052.93
33.8 1464
33.85 1870.14
33.9 2047.55
33.95 1875.85
34 1552.74
34.05 1145.34
34.1 714.319
34.15 458.867
34.2 316.802
34.25 246.363
34.3 209.474
34.35 198.75
34.4 201.653
34.45 217.166
34.5 204.464
34.55 180.29
34.6 181.084
34.65 183.248
34.7 212.096
34.75 184.77
34.8 172.293
34.85 177.471
34.9 176.757
34.95 183.059
35 185.062
35.05 178.731
35.1 166.162
35.15 155.216
35.2 182.622
35.25 169.666
35.3 171.088
35.35 177.137
35.4 186.587
35.45 179.631
35.5 194.389
35.55 157.748
35.6 189.245
35.65 184.732
35.7 181.896
35.75 192.618
35.8 209.966
35.85 183.382
35.9 203.49
35.95 252.776
36 282.591
36.05 399.136
36.1 581.089
36.15 770.456
36.2 859.119
36.25 917.3
36.3 900.29
36.35 755.001
36.4 563.139
36.45 419.693
36.5 326.681
36.55 243.65
36.6 223.808
36.65 190.515
36.7 174.693
36.75 172.182
36.8 177.863
36.85 181.502
36.9 146.919
36.95 165.785
37 175.988
37.05 169.975
37.1 185.995
37.15 187.328
37.2 205.361
37.25 228.06
37.3 238.976
37.35 253.512
37.4 268.502
37.45 241.547
37.5 234.054
37.55 227.852
37.6 206.332
37.65 194.245
37.7 160.301
37.75 158.432
37.8 166.718
37.85 162.838
37.9 166.298
37.95 185.297
38 164.015
38.05 175.082
38.1 173.57
38.15 179.472
38.2 173.613
38.25 188.578
38.3 187.426
38.35 167.869
38.4 162.127
38.45 163.08
38.5 190.625
38.55 205.916
38.6 254.59
38.65 322.357
38.7 457.532
38.75 620.679
38.8 828.674
38.85 950.415
38.9 977.088
38.95 918.661
39 776.162
39.05 629.188
39.1 455.269
39.15 315.523
39.2 227.19
39.25 200.455
39.3 197.397
39.35 162.124
39.4 158.935
39.45 149.199
39.5 160.105
39.55 158.733
39.6 176.804
39.65 154.164
39.7 152.183
39.75 127.838
39.8 172.425
39.85 143.101
39.9 155.403
39.95 147.577
40 161.753
40.05 161.464
40.1 187.193
40.15 205.334
40.2 226.065
40.25 233.716
40.3 259.436
40.35 241.086
40.4 208.61
40.45 190.775
40.5 179.284
40.55 152.3
40.6 141.428
40.65 138.789
40.7 141.939
40.75 141.928
40.8 139.995
40.85 128.166
40.9 164.196
40.95 144.1
41 134.118
41.05 146.26
41.1 158.649
41.15 152.669
41.2 139.03
41.25 146.16
41.3 138.537
41.35 167.395
41.4 149.583
41.45 170.506
41.5 146.685
41.55 146.229
41.6 142.372
41.65 143.057
41.7 160.276
41.75 184.162
41.8 209.497
41.85 265.709
41.9 261.261
41.95 256.703
42 231.319
42.05 245.304
42.1 197.228
42.15 173.992
42.2 177.519
42.25 166.511
42.3 145.276
42.35 173.017
42.4 156.775
42.45 161.509
42.5 171.17
42.55 185.392
42.6 194.855
42.65 231.662
42.7 237.797
42.75 236.798
42.8 222.418
42.85 189.376
42.9 170.562
42.95 148.585
43 161.064
43.05 157.504
43.1 129.089
43.15 124.102
43.2 147.063
43.25 138.738
43.3 136.784
43.35 117.233
43.4 131.203
43.45 148.952
43.5 160.271
43.55 180.437
43.6 182.124
43.65 177.821
43.7 164.554
43.75 164.609
43.8 121.265
43.85 140.511
43.9 120.999
43.95 118.842
44 135.868
44.05 113.747
44.1 117.68
44.15 122.13
44.2 136.09
44.25 129.83
44.3 99.021
44.35 124.007
44.4 116.838
44.45 110.079
44.5 112.059
44.55 107.545
44.6 143.083
44.65 107.593
44.7 131.639
44.75 117.6
44.8 107.084
44.85 115.376
44.9 134.998
44.95 137.751
45 140.593
45.05 107.14
45.1 110.428
45.15 119.771
45.2 118.546
45.25 111.168
45.3 107.888
45.35 110.735
45.4 113.233
45.45 125.838
45.5 106.38
45.55 122.897
45.6 128.227
45.65 113.048
45.7 118.047
45.75 113.419
45.8 112.016
45.85 107.406
45.9 135.605
45.95 138.042
46 112.97
46.05 118.876
46.1 117.847
46.15 107.732
46.2 111.704
46.25 107.483
46.3 118.143
46.35 104.363
46.4 114.61
46.45 118.529
46.5 105.419
46.55 90.8856
46.6 116.648
46.65 107.847
46.7 112.877
46.75 108.136
46.8 126.928
46.85 114.168
46.9 95.3258
46.95 119.256
47 109.827
47.05 112.38
47.1 126.484
47.15 127.214
47.2 131.383
47.25 162.989
47.3 201.397
47.35 251.063
47.4 300.572
47.45 365.952
47.5 383.941
47.55 372.885
47.6 357.683
47.65 272.143
47.7 220.448
47.75 177.84
47.8 153.18
47.85 133.434
47.9 127.221
47.95 110.672
48 125.567
48.05 107.873
48.1 111.578
48.15 110.993
48.2 103.533
48.25 83.1612
48.3 99.3321
48.35 115.431
48.4 105.214
48.45 107.885
48.5 96.2797
48.55 113.897
48.6 97.1144
48.65 83.6439
48.7 68.8107
48.75 93.7382
48.8 105.967
48.85 94.8526
48.9 89.0711
48.95 80.2878
49 105.661
49.05 99.1514
49.1 100.827
49.15 114.306
49.2 104.008
49.25 98.771
49.3 114.443
49.35 112.056
49.4 96.4583
49.45 106.748
49.5 108.954
49.55 102.736
49.6 76.29
49.65 77.8838
49.7 104.871
49.75 91.8711
49.8 76.4903
49.85 97.8548
49.9 96.6655
49.95 96.8703
50 98.0474
50.05 89.0203
50.1 88.8793
50.15 87.4706
50.2 98.4682
50.25 106.287
50.3 92.3145
50.35 87.9953
50.4 129.406
